! Initial file:   C:\Users\santi\Downloads\La2O3junio3.xy
! Initial format:   1
! WAVE (A):      1.54060     1.54060     1.00000
! REM : data have been multiplied by     1.0000
! X_data : 2 Theta (deg.)                                                                                                                                                                                                                                                  
! Y_data : Intensity (arb. units)                                                                                                                                                                                                                                          
!     X         Y
!--------------------------------------------------------------------------------
    10.0234     3819.00000
    10.0497     3775.00000
    10.0760     3890.00000
    10.1022     3829.00000
    10.1285     3764.00000
    10.1547     3811.00000
    10.1810     3894.00000
    10.2073     3752.00000
    10.2335     3827.00000
    10.2598     3784.00000
    10.2860     3791.00000
    10.3123     3734.00000
    10.3386     3708.00000
    10.3648     3703.00000
    10.3911     3680.00000
    10.4173     3752.00000
    10.4436     3709.00000
    10.4699     3764.00000
    10.4961     3666.00000
    10.5224     3637.00000
    10.5486     3648.00000
    10.5749     3762.00000
    10.6012     3688.00000
    10.6274     3581.00000
    10.6537     3610.00000
    10.6799     3551.00000
    10.7062     3683.00000
    10.7325     3643.00000
    10.7587     3622.00000
    10.7850     3558.00000
    10.8112     3535.00000
    10.8375     3674.00000
    10.8638     3630.00000
    10.8900     3591.00000
    10.9163     3486.00000
    10.9425     3441.00000
    10.9688     3484.00000
    10.9951     3487.00000
    11.0213     3531.00000
    11.0476     3494.00000
    11.0739     3552.00000
    11.1001     3455.00000
    11.1264     3414.00000
    11.1526     3399.00000
    11.1789     3399.00000
    11.2052     3502.00000
    11.2314     3379.00000
    11.2577     3449.00000
    11.2839     3457.00000
    11.3102     3455.00000
    11.3365     3319.00000
    11.3627     3266.00000
    11.3890     3347.00000
    11.4152     3443.00000
    11.4415     3514.00000
    11.4678     3166.00000
    11.4940     3300.00000
    11.5203     3224.00000
    11.5465     3264.00000
    11.5728     3294.00000
    11.5991     3252.00000
    11.6253     3247.00000
    11.6516     3247.00000
    11.6778     3235.00000
    11.7041     3231.00000
    11.7304     3224.00000
    11.7566     3289.00000
    11.7829     3183.00000
    11.8091     3160.00000
    11.8354     3230.00000
    11.8617     3262.00000
    11.8879     3156.00000
    11.9142     3199.00000
    11.9405     3137.00000
    11.9667     3135.00000
    11.9930     3094.00000
    12.0192     3138.00000
    12.0455     3099.00000
    12.0718     3183.00000
    12.0980     2964.00000
    12.1243     3193.00000
    12.1505     3076.00000
    12.1768     3001.00000
    12.2031     3077.00000
    12.2293     3015.00000
    12.2556     3013.00000
    12.2818     3111.00000
    12.3081     3084.00000
    12.3344     2974.00000
    12.3606     3081.00000
    12.3869     3075.00000
    12.4131     2940.00000
    12.4394     2924.00000
    12.4657     2891.00000
    12.4919     2815.00000
    12.5182     2961.00000
    12.5444     2973.00000
    12.5707     3048.00000
    12.5970     2957.00000
    12.6232     2928.00000
    12.6495     2892.00000
    12.6757     2939.00000
    12.7020     2933.00000
    12.7283     2923.00000
    12.7545     2873.00000
    12.7808     2843.00000
    12.8070     2781.00000
    12.8333     2875.00000
    12.8596     2878.00000
    12.8858     2833.00000
    12.9121     2883.00000
    12.9384     2803.00000
    12.9646     2896.00000
    12.9909     2739.00000
    13.0171     2793.00000
    13.0434     2790.00000
    13.0697     2708.00000
    13.0959     2925.00000
    13.1222     2721.00000
    13.1484     2645.00000
    13.1747     2866.00000
    13.2010     2648.00000
    13.2272     2692.00000
    13.2535     2722.00000
    13.2797     2706.00000
    13.3060     2663.00000
    13.3323     2726.00000
    13.3585     2664.00000
    13.3848     2600.00000
    13.4110     2610.00000
    13.4373     2734.00000
    13.4636     2549.00000
    13.4898     2638.00000
    13.5161     2588.00000
    13.5423     2550.00000
    13.5686     2587.00000
    13.5949     2568.00000
    13.6211     2608.00000
    13.6474     2617.00000
    13.6736     2553.00000
    13.6999     2719.00000
    13.7262     2531.00000
    13.7524     2589.00000
    13.7787     2501.00000
    13.8050     2496.00000
    13.8312     2577.00000
    13.8575     2524.00000
    13.8837     2602.00000
    13.9100     2548.00000
    13.9363     2573.00000
    13.9625     2535.00000
    13.9888     2644.00000
    14.0150     2515.00000
    14.0413     2467.00000
    14.0676     2513.00000
    14.0938     2375.00000
    14.1201     2553.00000
    14.1463     2557.00000
    14.1726     2477.00000
    14.1989     2441.00000
    14.2251     2493.00000
    14.2514     2455.00000
    14.2776     2422.00000
    14.3039     2281.00000
    14.3302     2449.00000
    14.3564     2511.00000
    14.3827     2371.00000
    14.4089     2435.00000
    14.4352     2381.00000
    14.4615     2293.00000
    14.4877     2329.00000
    14.5140     2330.00000
    14.5402     2493.00000
    14.5665     2481.00000
    14.5928     2293.00000
    14.6190     2363.00000
    14.6453     2319.00000
    14.6716     2380.00000
    14.6978     2307.00000
    14.7241     2452.00000
    14.7503     2411.00000
    14.7766     2259.00000
    14.8029     2401.00000
    14.8291     2296.00000
    14.8554     2314.00000
    14.8816     2485.00000
    14.9079     2344.00000
    14.9342     2423.00000
    14.9604     2376.00000
    14.9867     2275.00000
    15.0129     2420.00000
    15.0392     2435.00000
    15.0655     2379.00000
    15.0917     2380.00000
    15.1180     2305.00000
    15.1442     2582.00000
    15.1705     2652.00000
    15.1968     2639.00000
    15.2230     2571.00000
    15.2493     2674.00000
    15.2755     2871.00000
    15.3018     2953.00000
    15.3281     3039.00000
    15.3543     3147.00000
    15.3806     3466.00000
    15.4068     3734.00000
    15.4331     4111.00000
    15.4594     4606.00000
    15.4856     5082.00000
    15.5119     5875.00000
    15.5381     6721.00000
    15.5644     7667.00000
    15.5907     8888.00000
    15.6169     9656.00000
    15.6432    10105.00000
    15.6695     9839.00000
    15.6957     8668.00000
    15.7220     7525.00000
    15.7482     5989.00000
    15.7745     4856.00000
    15.8008     4159.00000
    15.8270     3732.00000
    15.8533     3213.00000
    15.8795     3027.00000
    15.9058     2821.00000
    15.9321     2589.00000
    15.9583     2565.00000
    15.9846     2541.00000
    16.0108     2388.00000
    16.0371     2285.00000
    16.0634     2373.00000
    16.0896     2287.00000
    16.1159     2252.00000
    16.1421     2253.00000
    16.1684     2249.00000
    16.1947     2161.00000
    16.2209     2214.00000
    16.2472     2205.00000
    16.2734     2171.00000
    16.2997     2158.00000
    16.3260     2061.00000
    16.3522     2083.00000
    16.3785     2007.00000
    16.4047     2094.00000
    16.4310     2005.00000
    16.4573     2049.00000
    16.4835     2016.00000
    16.5098     1937.00000
    16.5361     1973.00000
    16.5623     2057.00000
    16.5886     2003.00000
    16.6148     1936.00000
    16.6411     1880.00000
    16.6674     1907.00000
    16.6936     1911.00000
    16.7199     1983.00000
    16.7461     1963.00000
    16.7724     1937.00000
    16.7987     1872.00000
    16.8249     1912.00000
    16.8512     1871.00000
    16.8774     1897.00000
    16.9037     1902.00000
    16.9300     1910.00000
    16.9562     1930.00000
    16.9825     1934.00000
    17.0087     1829.00000
    17.0350     1829.00000
    17.0613     1886.00000
    17.0875     1953.00000
    17.1138     1746.00000
    17.1400     1848.00000
    17.1663     1827.00000
    17.1926     1808.00000
    17.2188     1848.00000
    17.2451     1816.00000
    17.2713     1764.00000
    17.2976     1872.00000
    17.3239     1800.00000
    17.3501     1744.00000
    17.3764     1803.00000
    17.4026     1765.00000
    17.4289     1841.00000
    17.4552     1791.00000
    17.4814     1803.00000
    17.5077     1843.00000
    17.5340     1798.00000
    17.5602     1817.00000
    17.5865     1818.00000
    17.6127     1796.00000
    17.6390     1893.00000
    17.6653     1751.00000
    17.6915     1782.00000
    17.7178     1801.00000
    17.7440     1855.00000
    17.7703     1782.00000
    17.7966     1781.00000
    17.8228     1848.00000
    17.8491     1818.00000
    17.8753     1736.00000
    17.9016     1726.00000
    17.9279     1718.00000
    17.9541     1722.00000
    17.9804     1824.00000
    18.0066     1722.00000
    18.0329     1765.00000
    18.0592     1699.00000
    18.0854     1789.00000
    18.1117     1619.00000
    18.1379     1584.00000
    18.1642     1667.00000
    18.1905     1716.00000
    18.2167     1612.00000
    18.2430     1666.00000
    18.2692     1706.00000
    18.2955     1640.00000
    18.3218     1675.00000
    18.3480     1660.00000
    18.3743     1656.00000
    18.4006     1625.00000
    18.4268     1675.00000
    18.4531     1662.00000
    18.4793     1603.00000
    18.5056     1595.00000
    18.5319     1750.00000
    18.5581     1629.00000
    18.5844     1623.00000
    18.6106     1554.00000
    18.6369     1562.00000
    18.6632     1601.00000
    18.6894     1546.00000
    18.7157     1592.00000
    18.7419     1635.00000
    18.7682     1493.00000
    18.7945     1626.00000
    18.8207     1560.00000
    18.8470     1593.00000
    18.8732     1589.00000
    18.8995     1561.00000
    18.9258     1530.00000
    18.9520     1608.00000
    18.9783     1626.00000
    19.0045     1608.00000
    19.0308     1501.00000
    19.0571     1536.00000
    19.0833     1557.00000
    19.1096     1527.00000
    19.1358     1567.00000
    19.1621     1559.00000
    19.1884     1514.00000
    19.2146     1588.00000
    19.2409     1511.00000
    19.2671     1545.00000
    19.2934     1641.00000
    19.3197     1539.00000
    19.3459     1523.00000
    19.3722     1566.00000
    19.3985     1626.00000
    19.4247     1429.00000
    19.4510     1504.00000
    19.4772     1482.00000
    19.5035     1591.00000
    19.5298     1513.00000
    19.5560     1494.00000
    19.5823     1490.00000
    19.6085     1542.00000
    19.6348     1479.00000
    19.6611     1411.00000
    19.6873     1514.00000
    19.7136     1495.00000
    19.7398     1506.00000
    19.7661     1495.00000
    19.7924     1466.00000
    19.8186     1491.00000
    19.8449     1453.00000
    19.8711     1486.00000
    19.8974     1485.00000
    19.9237     1459.00000
    19.9499     1475.00000
    19.9762     1511.00000
    20.0024     1451.00000
    20.0287     1524.00000
    20.0550     1398.00000
    20.0812     1449.00000
    20.1075     1550.00000
    20.1337     1392.00000
    20.1600     1440.00000
    20.1863     1408.00000
    20.2125     1428.00000
    20.2388     1432.00000
    20.2651     1395.00000
    20.2913     1401.00000
    20.3176     1460.00000
    20.3438     1504.00000
    20.3701     1453.00000
    20.3964     1445.00000
    20.4226     1441.00000
    20.4489     1420.00000
    20.4751     1459.00000
    20.5014     1440.00000
    20.5277     1346.00000
    20.5539     1420.00000
    20.5802     1412.00000
    20.6064     1425.00000
    20.6327     1423.00000
    20.6590     1454.00000
    20.6852     1376.00000
    20.7115     1384.00000
    20.7377     1361.00000
    20.7640     1436.00000
    20.7903     1361.00000
    20.8165     1333.00000
    20.8428     1377.00000
    20.8690     1395.00000
    20.8953     1414.00000
    20.9216     1360.00000
    20.9478     1402.00000
    20.9741     1343.00000
    21.0003     1357.00000
    21.0266     1383.00000
    21.0529     1366.00000
    21.0791     1353.00000
    21.1054     1402.00000
    21.1316     1417.00000
    21.1579     1317.00000
    21.1842     1329.00000
    21.2104     1395.00000
    21.2367     1312.00000
    21.2630     1333.00000
    21.2892     1366.00000
    21.3155     1423.00000
    21.3417     1329.00000
    21.3680     1274.00000
    21.3943     1327.00000
    21.4205     1385.00000
    21.4468     1374.00000
    21.4730     1332.00000
    21.4993     1325.00000
    21.5256     1345.00000
    21.5518     1314.00000
    21.5781     1342.00000
    21.6043     1260.00000
    21.6306     1297.00000
    21.6569     1309.00000
    21.6831     1378.00000
    21.7094     1297.00000
    21.7356     1270.00000
    21.7619     1281.00000
    21.7882     1322.00000
    21.8144     1350.00000
    21.8407     1335.00000
    21.8669     1262.00000
    21.8932     1250.00000
    21.9195     1266.00000
    21.9457     1250.00000
    21.9720     1268.00000
    21.9982     1304.00000
    22.0245     1264.00000
    22.0508     1321.00000
    22.0770     1272.00000
    22.1033     1308.00000
    22.1296     1306.00000
    22.1558     1321.00000
    22.1821     1333.00000
    22.2083     1294.00000
    22.2346     1345.00000
    22.2609     1327.00000
    22.2871     1367.00000
    22.3134     1288.00000
    22.3396     1311.00000
    22.3659     1327.00000
    22.3922     1285.00000
    22.4184     1251.00000
    22.4447     1262.00000
    22.4709     1218.00000
    22.4972     1320.00000
    22.5235     1202.00000
    22.5497     1326.00000
    22.5760     1166.00000
    22.6022     1252.00000
    22.6285     1243.00000
    22.6548     1244.00000
    22.6810     1231.00000
    22.7073     1287.00000
    22.7335     1261.00000
    22.7598     1242.00000
    22.7861     1177.00000
    22.8123     1185.00000
    22.8386     1178.00000
    22.8648     1190.00000
    22.8911     1257.00000
    22.9174     1208.00000
    22.9436     1239.00000
    22.9699     1221.00000
    22.9961     1147.00000
    23.0224     1175.00000
    23.0487     1239.00000
    23.0749     1157.00000
    23.1012     1173.00000
    23.1275     1185.00000
    23.1537     1148.00000
    23.1800     1185.00000
    23.2062     1166.00000
    23.2325     1187.00000
    23.2588     1137.00000
    23.2850     1230.00000
    23.3113     1194.00000
    23.3375     1190.00000
    23.3638     1218.00000
    23.3901     1168.00000
    23.4163     1146.00000
    23.4426     1177.00000
    23.4688     1184.00000
    23.4951     1184.00000
    23.5214     1226.00000
    23.5476     1154.00000
    23.5739     1218.00000
    23.6001     1187.00000
    23.6264     1234.00000
    23.6527     1196.00000
    23.6789     1114.00000
    23.7052     1124.00000
    23.7314     1118.00000
    23.7577     1164.00000
    23.7840     1152.00000
    23.8102     1147.00000
    23.8365     1161.00000
    23.8627     1099.00000
    23.8890     1117.00000
    23.9153     1295.00000
    23.9415     1120.00000
    23.9678     1168.00000
    23.9941     1178.00000
    24.0203     1189.00000
    24.0466     1189.00000
    24.0728     1155.00000
    24.0991     1145.00000
    24.1254     1198.00000
    24.1516     1141.00000
    24.1779     1194.00000
    24.2041     1206.00000
    24.2304     1212.00000
    24.2567     1177.00000
    24.2829     1276.00000
    24.3092     1295.00000
    24.3354     1342.00000
    24.3617     1205.00000
    24.3880     1278.00000
    24.4142     1300.00000
    24.4405     1266.00000
    24.4667     1201.00000
    24.4930     1156.00000
    24.5193     1174.00000
    24.5455     1154.00000
    24.5718     1220.00000
    24.5980     1135.00000
    24.6243     1085.00000
    24.6506     1211.00000
    24.6768     1117.00000
    24.7031     1144.00000
    24.7293     1167.00000
    24.7556     1063.00000
    24.7819     1160.00000
    24.8081     1117.00000
    24.8344     1123.00000
    24.8606     1070.00000
    24.8869     1072.00000
    24.9132     1084.00000
    24.9394     1126.00000
    24.9657     1128.00000
    24.9920     1090.00000
    25.0182     1139.00000
    25.0445     1122.00000
    25.0707     1088.00000
    25.0970     1134.00000
    25.1233     1129.00000
    25.1495     1155.00000
    25.1758     1126.00000
    25.2020     1137.00000
    25.2283     1122.00000
    25.2546     1133.00000
    25.2808     1109.00000
    25.3071     1162.00000
    25.3333     1074.00000
    25.3596     1066.00000
    25.3859     1101.00000
    25.4121     1021.00000
    25.4384     1120.00000
    25.4646     1087.00000
    25.4909     1077.00000
    25.5172     1009.00000
    25.5434     1068.00000
    25.5697     1086.00000
    25.5959     1023.00000
    25.6222     1114.00000
    25.6485     1065.00000
    25.6747     1055.00000
    25.7010     1161.00000
    25.7272     1057.00000
    25.7535     1107.00000
    25.7798     1114.00000
    25.8060     1172.00000
    25.8323     1140.00000
    25.8586     1151.00000
    25.8848     1151.00000
    25.9111     1039.00000
    25.9373     1135.00000
    25.9636     1035.00000
    25.9899     1053.00000
    26.0161     1072.00000
    26.0424     1056.00000
    26.0686     1107.00000
    26.0949     1011.00000
    26.1212     1051.00000
    26.1474     1097.00000
    26.1737     1076.00000
    26.1999     1040.00000
    26.2262     1065.00000
    26.2525     1047.00000
    26.2787     1081.00000
    26.3050     1121.00000
    26.3312     1107.00000
    26.3575     1058.00000
    26.3838     1088.00000
    26.4100     1158.00000
    26.4363     1092.00000
    26.4625     1053.00000
    26.4888     1124.00000
    26.5151     1117.00000
    26.5413     1102.00000
    26.5676     1156.00000
    26.5938     1168.00000
    26.6201     1114.00000
    26.6464     1218.00000
    26.6726     1144.00000
    26.6989     1190.00000
    26.7251     1160.00000
    26.7514     1242.00000
    26.7777     1213.00000
    26.8039     1252.00000
    26.8302     1287.00000
    26.8565     1259.00000
    26.8827     1349.00000
    26.9090     1467.00000
    26.9352     1504.00000
    26.9615     1739.00000
    26.9878     1723.00000
    27.0140     1912.00000
    27.0403     2180.00000
    27.0665     2417.00000
    27.0928     2675.00000
    27.1191     3103.00000
    27.1453     3568.00000
    27.1716     4237.00000
    27.1978     4716.00000
    27.2241     5469.00000
    27.2504     6229.00000
    27.2766     6332.00000
    27.3029     6375.00000
    27.3291     6309.00000
    27.3554     5706.00000
    27.3817     5100.00000
    27.4079     4458.00000
    27.4342     3772.00000
    27.4604     3363.00000
    27.4867     2981.00000
    27.5130     2704.00000
    27.5392     2463.00000
    27.5655     2319.00000
    27.5917     2270.00000
    27.6180     2333.00000
    27.6443     2298.00000
    27.6705     2362.00000
    27.6968     2633.00000
    27.7231     2823.00000
    27.7493     3115.00000
    27.7756     3545.00000
    27.8018     4128.00000
    27.8281     4940.00000
    27.8544     5923.00000
    27.8806     6855.00000
    27.9069     8059.00000
    27.9331     8777.00000
    27.9594     9360.00000
